# E (eV)   ldos(E)   pdos(E)    pdos(E)    pdos(E)    pdos(E)    pdos(E)   
   5.000  0.340E-02  0.633E-03  0.713E-03  0.713E-03  0.673E-03  0.673E-03
   5.100  0.764E-02  0.158E-02  0.149E-02  0.149E-02  0.154E-02  0.154E-02
   5.200  0.107E-01  0.244E-02  0.195E-02  0.195E-02  0.219E-02  0.219E-02
   5.300  0.101E-01  0.255E-02  0.169E-02  0.169E-02  0.212E-02  0.212E-02
   5.400  0.640E-02  0.181E-02  0.924E-03  0.924E-03  0.137E-02  0.137E-02
   5.500  0.225E-02  0.805E-03  0.212E-03  0.212E-03  0.509E-03  0.509E-03
   5.600 -0.630E-04  0.110E-03 -0.943E-04 -0.943E-04  0.783E-05  0.783E-05
   5.700  0.735E-05 -0.167E-03  0.113E-03  0.113E-03 -0.265E-04 -0.265E-04
   5.800  0.158E-02 -0.309E-03  0.732E-03  0.732E-03  0.212E-03  0.212E-03
   5.900  0.276E-02 -0.575E-03  0.130E-02  0.130E-02  0.364E-03  0.364E-03
   6.000  0.254E-02 -0.709E-03  0.132E-02  0.132E-02  0.304E-03  0.304E-03
   6.100  0.424E-02  0.432E-03  0.112E-02  0.112E-02  0.778E-03  0.778E-03
   6.200  0.145E-01  0.414E-02  0.206E-02  0.206E-02  0.310E-02  0.310E-02
   6.300  0.341E-01  0.968E-02  0.493E-02  0.493E-02  0.730E-02  0.730E-02
   6.400  0.522E-01  0.134E-01  0.848E-02  0.848E-02  0.109E-01  0.109E-01
   6.500  0.545E-01  0.122E-01  0.101E-01  0.101E-01  0.111E-01  0.111E-01
   6.600  0.410E-01  0.779E-02  0.848E-02  0.848E-02  0.814E-02  0.814E-02
   6.700  0.326E-01  0.698E-02  0.622E-02  0.622E-02  0.660E-02  0.660E-02
   6.800  0.510E-01  0.151E-01  0.698E-02  0.698E-02  0.110E-01  0.110E-01
   6.900  0.903E-01  0.282E-01  0.113E-01  0.113E-01  0.198E-01  0.198E-01
   7.000  0.121E+00  0.350E-01  0.169E-01  0.169E-01  0.259E-01  0.259E-01
   7.100  0.125E+00  0.282E-01  0.228E-01  0.228E-01  0.255E-01  0.255E-01
   7.200  0.110E+00  0.136E-01  0.277E-01  0.277E-01  0.206E-01  0.206E-01
   7.300  0.931E-01  0.393E-02  0.284E-01  0.284E-01  0.162E-01  0.162E-01
   7.400  0.101E+00  0.118E-01  0.259E-01  0.259E-01  0.189E-01  0.189E-01
   7.500  0.182E+00  0.451E-01  0.305E-01  0.305E-01  0.378E-01  0.378E-01
   7.600  0.362E+00  0.983E-01  0.549E-01  0.549E-01  0.766E-01  0.766E-01
   7.700  0.618E+00  0.148E+00  0.107E+00  0.107E+00  0.128E+00  0.128E+00
   7.800  0.881E+00  0.169E+00  0.181E+00  0.181E+00  0.175E+00  0.175E+00
   7.900  0.104E+01  0.154E+00  0.246E+00  0.246E+00  0.200E+00  0.200E+00
   8.000  0.105E+01  0.132E+00  0.262E+00  0.262E+00  0.197E+00  0.197E+00
   8.100  0.102E+01  0.149E+00  0.241E+00  0.241E+00  0.195E+00  0.195E+00
   8.200  0.119E+01  0.230E+00  0.242E+00  0.242E+00  0.236E+00  0.236E+00
   8.300  0.156E+01  0.339E+00  0.295E+00  0.295E+00  0.317E+00  0.317E+00
   8.400  0.190E+01  0.419E+00  0.355E+00  0.355E+00  0.387E+00  0.387E+00
   8.500  0.202E+01  0.456E+00  0.369E+00  0.369E+00  0.413E+00  0.413E+00
   8.600  0.198E+01  0.468E+00  0.348E+00  0.348E+00  0.408E+00  0.408E+00
   8.700  0.192E+01  0.456E+00  0.336E+00  0.336E+00  0.396E+00  0.396E+00
   8.800  0.194E+01  0.432E+00  0.358E+00  0.358E+00  0.395E+00  0.395E+00
   8.900  0.208E+01  0.442E+00  0.397E+00  0.397E+00  0.420E+00  0.420E+00
   9.000  0.225E+01  0.508E+00  0.413E+00  0.413E+00  0.460E+00  0.460E+00
   9.100  0.237E+01  0.585E+00  0.399E+00  0.399E+00  0.492E+00  0.492E+00
   9.200  0.246E+01  0.631E+00  0.399E+00  0.399E+00  0.515E+00  0.515E+00
   9.300  0.265E+01  0.657E+00  0.444E+00  0.444E+00  0.551E+00  0.551E+00
   9.400  0.296E+01  0.699E+00  0.520E+00  0.520E+00  0.609E+00  0.609E+00
   9.500  0.334E+01  0.763E+00  0.605E+00  0.605E+00  0.684E+00  0.684E+00
   9.600  0.375E+01  0.836E+00  0.692E+00  0.692E+00  0.764E+00  0.764E+00
   9.700  0.401E+01  0.883E+00  0.749E+00  0.749E+00  0.816E+00  0.816E+00
   9.800  0.384E+01  0.839E+00  0.721E+00  0.721E+00  0.780E+00  0.780E+00
   9.900  0.321E+01  0.672E+00  0.623E+00  0.623E+00  0.647E+00  0.647E+00
  10.000  0.263E+01  0.468E+00  0.563E+00  0.563E+00  0.516E+00  0.516E+00
  10.100  0.263E+01  0.368E+00  0.631E+00  0.631E+00  0.500E+00  0.500E+00
  10.200  0.315E+01  0.396E+00  0.786E+00  0.786E+00  0.591E+00  0.591E+00
  10.300  0.357E+01  0.438E+00  0.898E+00  0.898E+00  0.668E+00  0.668E+00
  10.400  0.343E+01  0.393E+00  0.881E+00  0.881E+00  0.637E+00  0.637E+00
  10.500  0.294E+01  0.304E+00  0.777E+00  0.777E+00  0.540E+00  0.540E+00
  10.600  0.275E+01  0.312E+00  0.710E+00  0.710E+00  0.511E+00  0.511E+00
  10.700  0.325E+01  0.503E+00  0.747E+00  0.747E+00  0.625E+00  0.625E+00
  10.800  0.409E+01  0.799E+00  0.832E+00  0.832E+00  0.815E+00  0.815E+00
  10.900  0.462E+01  0.102E+01  0.863E+00  0.863E+00  0.940E+00  0.940E+00
  11.000  0.437E+01  0.102E+01  0.776E+00  0.776E+00  0.898E+00  0.898E+00
  11.100  0.331E+01  0.795E+00  0.572E+00  0.572E+00  0.684E+00  0.684E+00
  11.200  0.186E+01  0.455E+00  0.317E+00  0.317E+00  0.386E+00  0.386E+00
  11.300  0.645E+00  0.159E+00  0.109E+00  0.109E+00  0.134E+00  0.134E+00
  11.400  0.681E-02  0.173E-02  0.112E-02  0.112E-02  0.142E-02  0.142E-02
  11.500 -0.149E+00 -0.372E-01 -0.249E-01 -0.249E-01 -0.310E-01 -0.310E-01
  11.600 -0.107E+00 -0.265E-01 -0.182E-01 -0.182E-01 -0.223E-01 -0.223E-01
  11.700 -0.531E-01 -0.124E-01 -0.943E-02 -0.943E-02 -0.109E-01 -0.109E-01
  11.800 -0.241E-01 -0.522E-02 -0.455E-02 -0.455E-02 -0.488E-02 -0.488E-02
  11.900  0.932E-02  0.173E-02  0.195E-02  0.195E-02  0.184E-02  0.184E-02
  12.000  0.774E-01  0.154E-01  0.155E-01  0.155E-01  0.155E-01  0.155E-01
  12.100  0.179E+00  0.362E-01  0.355E-01  0.355E-01  0.359E-01  0.359E-01
  12.200  0.289E+00  0.594E-01  0.566E-01  0.566E-01  0.580E-01  0.580E-01
  12.300  0.377E+00  0.788E-01  0.732E-01  0.732E-01  0.760E-01  0.760E-01
  12.400  0.410E+00  0.864E-01  0.792E-01  0.792E-01  0.828E-01  0.828E-01
  12.500  0.371E+00  0.781E-01  0.718E-01  0.718E-01  0.749E-01  0.749E-01
  12.600  0.297E+00  0.618E-01  0.579E-01  0.579E-01  0.598E-01  0.598E-01
  12.700  0.237E+00  0.490E-01  0.465E-01  0.465E-01  0.477E-01  0.477E-01
  12.800  0.187E+00  0.389E-01  0.363E-01  0.363E-01  0.376E-01  0.376E-01
  12.900  0.117E+00  0.249E-01  0.224E-01  0.224E-01  0.237E-01  0.237E-01
  13.000  0.419E-01  0.920E-02  0.784E-02  0.784E-02  0.852E-02  0.852E-02
  13.100 -0.427E-02 -0.744E-03 -0.928E-03 -0.928E-03 -0.836E-03 -0.836E-03
  13.200 -0.858E-02 -0.176E-02 -0.169E-02 -0.169E-02 -0.172E-02 -0.172E-02
  13.300  0.209E-01  0.466E-02  0.385E-02  0.385E-02  0.426E-02  0.426E-02
  13.400  0.642E-01  0.142E-01  0.119E-01  0.119E-01  0.131E-01  0.131E-01
  13.500  0.914E-01  0.202E-01  0.170E-01  0.170E-01  0.186E-01  0.186E-01
  13.600  0.864E-01  0.193E-01  0.159E-01  0.159E-01  0.176E-01  0.176E-01
  13.700  0.662E-01  0.152E-01  0.119E-01  0.119E-01  0.136E-01  0.136E-01
  13.800  0.536E-01  0.128E-01  0.933E-02  0.933E-02  0.111E-01  0.111E-01
  13.900  0.458E-01  0.112E-01  0.779E-02  0.779E-02  0.950E-02  0.950E-02
  14.000  0.301E-01  0.743E-02  0.507E-02  0.507E-02  0.625E-02  0.625E-02
  14.100  0.933E-02  0.244E-02  0.148E-02  0.148E-02  0.196E-02  0.196E-02
  14.200 -0.577E-02 -0.108E-02 -0.120E-02 -0.120E-02 -0.114E-02 -0.114E-02
  14.300 -0.872E-02 -0.183E-02 -0.169E-02 -0.169E-02 -0.176E-02 -0.176E-02
  14.400  0.798E-02  0.131E-02  0.179E-02  0.179E-02  0.155E-02  0.155E-02
  14.500  0.499E-01  0.921E-02  0.105E-01  0.105E-01  0.985E-02  0.985E-02
  14.600  0.101E+00  0.188E-01  0.210E-01  0.210E-01  0.199E-01  0.199E-01
  14.700  0.125E+00  0.239E-01  0.259E-01  0.259E-01  0.249E-01  0.249E-01
  14.800  0.113E+00  0.225E-01  0.228E-01  0.228E-01  0.226E-01  0.226E-01
  14.900  0.874E-01  0.185E-01  0.168E-01  0.168E-01  0.177E-01  0.177E-01
  15.000  0.660E-01  0.149E-01  0.120E-01  0.120E-01  0.135E-01  0.135E-01
  15.100  0.440E-01  0.102E-01  0.783E-02  0.783E-02  0.904E-02  0.904E-02
  15.200  0.189E-01  0.440E-02  0.337E-02  0.337E-02  0.388E-02  0.388E-02
  15.300  0.668E-03  0.154E-03  0.120E-03  0.120E-03  0.137E-03  0.137E-03
  15.400 -0.436E-02 -0.741E-03 -0.959E-03 -0.959E-03 -0.850E-03 -0.850E-03
  15.500  0.226E-02  0.142E-02 -0.192E-03 -0.192E-03  0.612E-03  0.612E-03
  15.600  0.201E-01  0.630E-02  0.250E-02  0.250E-02  0.440E-02  0.440E-02
  15.700  0.502E-01  0.138E-01  0.754E-02  0.754E-02  0.107E-01  0.107E-01
  15.800  0.820E-01  0.213E-01  0.132E-01  0.132E-01  0.172E-01  0.172E-01
  15.900  0.917E-01  0.232E-01  0.151E-01  0.151E-01  0.191E-01  0.191E-01
  16.000  0.688E-01  0.172E-01  0.115E-01  0.115E-01  0.143E-01  0.143E-01
  16.100  0.329E-01  0.841E-02  0.537E-02  0.537E-02  0.689E-02  0.689E-02
  16.200  0.949E-02  0.284E-02  0.127E-02  0.127E-02  0.206E-02  0.206E-02
  16.300  0.195E-02  0.104E-02 -0.446E-04 -0.446E-04  0.498E-03  0.498E-03
  16.400  0.143E-03  0.356E-03 -0.190E-03 -0.190E-03  0.831E-04  0.831E-04
  16.500  0.182E-02  0.730E-03  0.121E-03  0.121E-03  0.425E-03  0.425E-03
  16.600  0.148E-01  0.497E-02  0.164E-02  0.164E-02  0.330E-02  0.330E-02
  16.700  0.421E-01  0.140E-01  0.470E-02  0.470E-02  0.935E-02  0.935E-02
  16.800  0.709E-01  0.235E-01  0.795E-02  0.795E-02  0.157E-01  0.157E-01
  16.900  0.816E-01  0.270E-01  0.916E-02  0.916E-02  0.181E-01  0.181E-01
  17.000  0.662E-01  0.219E-01  0.746E-02  0.746E-02  0.147E-01  0.147E-01
  17.100  0.364E-01  0.120E-01  0.411E-02  0.411E-02  0.807E-02  0.807E-02
  17.200  0.104E-01  0.343E-02  0.117E-02  0.117E-02  0.230E-02  0.230E-02
  17.300 -0.274E-02 -0.881E-03 -0.325E-03 -0.325E-03 -0.603E-03 -0.603E-03
  17.400 -0.500E-02 -0.162E-02 -0.587E-03 -0.587E-03 -0.110E-02 -0.110E-02
  17.500 -0.136E-03 -0.853E-04  0.113E-04  0.113E-04 -0.369E-04 -0.369E-04
  17.600  0.109E-01  0.334E-02  0.140E-02  0.140E-02  0.237E-02  0.237E-02
  17.700  0.238E-01  0.735E-02  0.304E-02  0.304E-02  0.519E-02  0.519E-02
  17.800  0.292E-01  0.903E-02  0.371E-02  0.371E-02  0.637E-02  0.637E-02
  17.900  0.238E-01  0.738E-02  0.302E-02  0.302E-02  0.520E-02  0.520E-02
  18.000  0.182E-01  0.557E-02  0.237E-02  0.237E-02  0.397E-02  0.397E-02
  18.100  0.232E-01  0.682E-02  0.318E-02  0.318E-02  0.500E-02  0.500E-02
  18.200  0.330E-01  0.949E-02  0.466E-02  0.466E-02  0.708E-02  0.708E-02
  18.300  0.329E-01  0.934E-02  0.475E-02  0.475E-02  0.705E-02  0.705E-02
  18.400  0.202E-01  0.566E-02  0.297E-02  0.297E-02  0.432E-02  0.432E-02
  18.500  0.730E-02  0.209E-02  0.104E-02  0.104E-02  0.156E-02  0.156E-02
  18.600  0.645E-02  0.210E-02  0.752E-03  0.752E-03  0.143E-02  0.143E-02
  18.700  0.189E-01  0.579E-02  0.244E-02  0.244E-02  0.412E-02  0.412E-02
  18.800  0.353E-01  0.103E-01  0.487E-02  0.487E-02  0.761E-02  0.761E-02
  18.900  0.430E-01  0.123E-01  0.615E-02  0.615E-02  0.922E-02  0.922E-02
  19.000  0.375E-01  0.106E-01  0.545E-02  0.545E-02  0.802E-02  0.802E-02
  19.100  0.268E-01  0.766E-02  0.383E-02  0.383E-02  0.574E-02  0.574E-02
  19.200  0.200E-01  0.594E-02  0.269E-02  0.269E-02  0.432E-02  0.432E-02
  19.300  0.169E-01  0.522E-02  0.215E-02  0.215E-02  0.368E-02  0.368E-02
  19.400  0.146E-01  0.455E-02  0.181E-02  0.181E-02  0.318E-02  0.318E-02
  19.500  0.149E-01  0.460E-02  0.190E-02  0.190E-02  0.325E-02  0.325E-02
  19.600  0.200E-01  0.597E-02  0.269E-02  0.269E-02  0.433E-02  0.433E-02
  19.700  0.255E-01  0.713E-02  0.376E-02  0.376E-02  0.544E-02  0.544E-02
  19.800  0.252E-01  0.605E-02  0.437E-02  0.437E-02  0.521E-02  0.521E-02
  19.900  0.184E-01  0.312E-02  0.407E-02  0.407E-02  0.359E-02  0.359E-02
  20.000  0.954E-02  0.418E-03  0.290E-02  0.290E-02  0.166E-02  0.166E-02
  20.100  0.336E-02 -0.788E-03  0.165E-02  0.165E-02  0.429E-03  0.429E-03
  20.200  0.368E-02 -0.319E-03  0.144E-02  0.144E-02  0.559E-03  0.559E-03
  20.300  0.121E-01  0.205E-02  0.266E-02  0.266E-02  0.236E-02  0.236E-02
  20.400  0.247E-01  0.586E-02  0.434E-02  0.434E-02  0.510E-02  0.510E-02
  20.500  0.325E-01  0.869E-02  0.504E-02  0.504E-02  0.687E-02  0.687E-02
  20.600  0.289E-01  0.807E-02  0.424E-02  0.424E-02  0.616E-02  0.616E-02
  20.700  0.175E-01  0.462E-02  0.276E-02  0.276E-02  0.369E-02  0.369E-02
  20.800  0.725E-02  0.123E-02  0.160E-02  0.160E-02  0.141E-02  0.141E-02
  20.900  0.239E-02 -0.357E-03  0.103E-02  0.103E-02  0.338E-03  0.338E-03
  21.000  0.233E-02 -0.553E-03  0.115E-02  0.115E-02  0.297E-03  0.297E-03
  21.100  0.609E-02 -0.284E-03  0.222E-02  0.222E-02  0.968E-03  0.968E-03
  21.200  0.119E-01  0.237E-03  0.379E-02  0.379E-02  0.202E-02  0.202E-02
  21.300  0.165E-01  0.127E-02  0.465E-02  0.465E-02  0.296E-02  0.296E-02
  21.400  0.185E-01  0.266E-02  0.439E-02  0.439E-02  0.352E-02  0.352E-02
  21.500  0.185E-01  0.349E-02  0.384E-02  0.384E-02  0.367E-02  0.367E-02
  21.600  0.163E-01  0.300E-02  0.344E-02  0.344E-02  0.322E-02  0.322E-02
  21.700  0.111E-01  0.155E-02  0.268E-02  0.268E-02  0.211E-02  0.211E-02
  21.800  0.448E-02  0.245E-03  0.133E-02  0.133E-02  0.788E-03  0.788E-03
  21.900  0.165E-03 -0.205E-03  0.192E-03  0.192E-03 -0.659E-05 -0.659E-05
  22.000  0.191E-02  0.362E-03  0.394E-03  0.394E-03  0.378E-03  0.378E-03
  22.100  0.105E-01  0.171E-02  0.236E-02  0.236E-02  0.203E-02  0.203E-02
  22.200  0.211E-01  0.303E-02  0.499E-02  0.499E-02  0.401E-02  0.401E-02
  22.300  0.253E-01  0.342E-02  0.617E-02  0.617E-02  0.479E-02  0.479E-02
  22.400  0.204E-01  0.282E-02  0.492E-02  0.492E-02  0.387E-02  0.387E-02
  22.500  0.119E-01  0.210E-02  0.256E-02  0.256E-02  0.233E-02  0.233E-02
  22.600  0.649E-02  0.183E-02  0.945E-03  0.945E-03  0.139E-02  0.139E-02
  22.700  0.496E-02  0.179E-02  0.465E-03  0.465E-03  0.112E-02  0.112E-02
  22.800  0.416E-02  0.147E-02  0.407E-03  0.407E-03  0.938E-03  0.938E-03
  22.900  0.211E-02  0.746E-03  0.207E-03  0.207E-03  0.477E-03  0.477E-03
  23.000 -0.257E-03  0.153E-04 -0.957E-04 -0.957E-04 -0.402E-04 -0.402E-04
  23.100 -0.208E-03  0.414E-05 -0.721E-04 -0.721E-04 -0.340E-04 -0.340E-04
  23.200  0.505E-02  0.134E-02  0.786E-03  0.786E-03  0.106E-02  0.106E-02
  23.300  0.151E-01  0.378E-02  0.250E-02  0.250E-02  0.314E-02  0.314E-02
  23.400  0.236E-01  0.569E-02  0.409E-02  0.409E-02  0.489E-02  0.489E-02
  23.500  0.235E-01  0.543E-02  0.422E-02  0.422E-02  0.483E-02  0.483E-02
  23.600  0.149E-01  0.327E-02  0.279E-02  0.279E-02  0.303E-02  0.303E-02
  23.700  0.520E-02  0.998E-03  0.107E-02  0.107E-02  0.103E-02  0.103E-02
  23.800  0.314E-03 -0.147E-03  0.203E-03  0.203E-03  0.279E-04  0.279E-04
  23.900  0.177E-03 -0.312E-03  0.267E-03  0.267E-03 -0.225E-04 -0.225E-04
  24.000  0.204E-02 -0.112E-03  0.754E-03  0.754E-03  0.321E-03  0.321E-03
  24.100  0.393E-02  0.154E-03  0.121E-02  0.121E-02  0.680E-03  0.680E-03
  24.200  0.560E-02  0.578E-03  0.148E-02  0.148E-02  0.103E-02  0.103E-02
  24.300  0.824E-02  0.133E-02  0.186E-02  0.186E-02  0.160E-02  0.160E-02
  24.400  0.121E-01  0.219E-02  0.259E-02  0.259E-02  0.239E-02  0.239E-02
  24.500  0.145E-01  0.248E-02  0.319E-02  0.319E-02  0.284E-02  0.284E-02
  24.600  0.124E-01  0.187E-02  0.287E-02  0.287E-02  0.237E-02  0.237E-02
  24.700  0.694E-02  0.911E-03  0.171E-02  0.171E-02  0.131E-02  0.131E-02
  24.800  0.283E-02  0.366E-03  0.700E-03  0.700E-03  0.533E-03  0.533E-03
  24.900  0.238E-02  0.369E-03  0.548E-03  0.548E-03  0.458E-03  0.458E-03
  25.000  0.391E-02  0.512E-03  0.963E-03  0.963E-03  0.737E-03  0.737E-03
  25.100  0.452E-02  0.462E-03  0.120E-02  0.120E-02  0.831E-03  0.831E-03
