# E (eV)   ldos(E)   pdos(E)    pdos(E)    pdos(E)   
   5.000  0.937E-01  0.312E-01  0.312E-01  0.312E-01
   5.100  0.192E+00  0.639E-01  0.639E-01  0.639E-01
   5.200  0.254E+00  0.846E-01  0.846E-01  0.846E-01
   5.300  0.222E+00  0.740E-01  0.740E-01  0.740E-01
   5.400  0.126E+00  0.421E-01  0.421E-01  0.421E-01
   5.500  0.375E-01  0.125E-01  0.125E-01  0.125E-01
   5.600 -0.482E-02 -0.161E-02 -0.161E-02 -0.161E-02
   5.700 -0.519E-02 -0.173E-02 -0.173E-02 -0.173E-02
   5.800  0.157E-01  0.523E-02  0.523E-02  0.523E-02
   5.900  0.347E-01  0.116E-01  0.116E-01  0.116E-01
   6.000  0.368E-01  0.123E-01  0.123E-01  0.123E-01
   6.100  0.379E-01  0.126E-01  0.126E-01  0.126E-01
   6.200  0.809E-01  0.270E-01  0.270E-01  0.270E-01
   6.300  0.181E+00  0.605E-01  0.605E-01  0.605E-01
   6.400  0.287E+00  0.957E-01  0.957E-01  0.957E-01
   6.500  0.318E+00  0.106E+00  0.106E+00  0.106E+00
   6.600  0.252E+00  0.840E-01  0.840E-01  0.840E-01
   6.700  0.155E+00  0.516E-01  0.516E-01  0.516E-01
   6.800  0.112E+00  0.373E-01  0.373E-01  0.373E-01
   6.900  0.134E+00  0.447E-01  0.447E-01  0.447E-01
   7.000  0.166E+00  0.553E-01  0.553E-01  0.553E-01
   7.100  0.173E+00  0.576E-01  0.576E-01  0.576E-01
   7.200  0.164E+00  0.547E-01  0.547E-01  0.547E-01
   7.300  0.141E+00  0.471E-01  0.471E-01  0.471E-01
   7.400  0.975E-01  0.325E-01  0.325E-01  0.325E-01
   7.500  0.549E-01  0.183E-01  0.183E-01  0.183E-01
   7.600  0.511E-01  0.170E-01  0.170E-01  0.170E-01
   7.700  0.104E+00  0.348E-01  0.348E-01  0.348E-01
   7.800  0.199E+00  0.665E-01  0.665E-01  0.665E-01
   7.900  0.281E+00  0.935E-01  0.935E-01  0.935E-01
   8.000  0.282E+00  0.941E-01  0.941E-01  0.941E-01
   8.100  0.203E+00  0.678E-01  0.678E-01  0.678E-01
   8.200  0.114E+00  0.378E-01  0.378E-01  0.378E-01
   8.300  0.724E-01  0.241E-01  0.241E-01  0.241E-01
   8.400  0.791E-01  0.264E-01  0.264E-01  0.264E-01
   8.500  0.104E+00  0.345E-01  0.345E-01  0.345E-01
   8.600  0.125E+00  0.415E-01  0.415E-01  0.415E-01
   8.700  0.135E+00  0.449E-01  0.449E-01  0.449E-01
   8.800  0.141E+00  0.471E-01  0.471E-01  0.471E-01
   8.900  0.156E+00  0.520E-01  0.520E-01  0.520E-01
   9.000  0.173E+00  0.576E-01  0.576E-01  0.576E-01
   9.100  0.173E+00  0.576E-01  0.576E-01  0.576E-01
   9.200  0.157E+00  0.524E-01  0.524E-01  0.524E-01
   9.300  0.148E+00  0.494E-01  0.494E-01  0.494E-01
   9.400  0.157E+00  0.524E-01  0.524E-01  0.524E-01
   9.500  0.174E+00  0.581E-01  0.581E-01  0.581E-01
   9.600  0.194E+00  0.645E-01  0.645E-01  0.645E-01
   9.700  0.219E+00  0.731E-01  0.731E-01  0.731E-01
   9.800  0.238E+00  0.795E-01  0.795E-01  0.795E-01
   9.900  0.222E+00  0.741E-01  0.741E-01  0.741E-01
  10.000  0.165E+00  0.551E-01  0.551E-01  0.551E-01
  10.100  0.986E-01  0.329E-01  0.329E-01  0.329E-01
  10.200  0.559E-01  0.186E-01  0.186E-01  0.186E-01
  10.300  0.436E-01  0.145E-01  0.145E-01  0.145E-01
  10.400  0.456E-01  0.152E-01  0.152E-01  0.152E-01
  10.500  0.447E-01  0.149E-01  0.149E-01  0.149E-01
  10.600  0.350E-01  0.117E-01  0.117E-01  0.117E-01
  10.700  0.238E-01  0.793E-02  0.793E-02  0.793E-02
  10.800  0.256E-01  0.853E-02  0.853E-02  0.853E-02
  10.900  0.515E-01  0.172E-01  0.172E-01  0.172E-01
  11.000  0.945E-01  0.315E-01  0.315E-01  0.315E-01
  11.100  0.128E+00  0.428E-01  0.428E-01  0.428E-01
  11.200  0.132E+00  0.440E-01  0.440E-01  0.440E-01
  11.300  0.111E+00  0.370E-01  0.370E-01  0.370E-01
  11.400  0.866E-01  0.289E-01  0.289E-01  0.289E-01
  11.500  0.665E-01  0.222E-01  0.222E-01  0.222E-01
  11.600  0.439E-01  0.146E-01  0.146E-01  0.146E-01
  11.700  0.170E-01  0.565E-02  0.565E-02  0.565E-02
  11.800 -0.105E-02 -0.351E-03 -0.351E-03 -0.351E-03
  11.900  0.764E-02  0.255E-02  0.255E-02  0.255E-02
  12.000  0.487E-01  0.162E-01  0.162E-01  0.162E-01
  12.100  0.108E+00  0.358E-01  0.358E-01  0.358E-01
  12.200  0.163E+00  0.544E-01  0.544E-01  0.544E-01
  12.300  0.206E+00  0.687E-01  0.687E-01  0.687E-01
  12.400  0.236E+00  0.787E-01  0.787E-01  0.787E-01
  12.500  0.259E+00  0.863E-01  0.863E-01  0.863E-01
  12.600  0.286E+00  0.952E-01  0.952E-01  0.952E-01
  12.700  0.301E+00  0.100E+00  0.100E+00  0.100E+00
  12.800  0.262E+00  0.874E-01  0.874E-01  0.874E-01
  12.900  0.161E+00  0.535E-01  0.535E-01  0.535E-01
  13.000  0.519E-01  0.173E-01  0.173E-01  0.173E-01
  13.100 -0.933E-02 -0.311E-02 -0.311E-02 -0.311E-02
  13.200 -0.117E-01 -0.389E-02 -0.389E-02 -0.389E-02
  13.300  0.320E-01  0.107E-01  0.107E-01  0.107E-01
  13.400  0.946E-01  0.315E-01  0.315E-01  0.315E-01
  13.500  0.137E+00  0.455E-01  0.455E-01  0.455E-01
  13.600  0.146E+00  0.485E-01  0.485E-01  0.485E-01
  13.700  0.158E+00  0.526E-01  0.526E-01  0.526E-01
  13.800  0.192E+00  0.641E-01  0.641E-01  0.641E-01
  13.900  0.207E+00  0.688E-01  0.688E-01  0.688E-01
  14.000  0.160E+00  0.532E-01  0.532E-01  0.532E-01
  14.100  0.745E-01  0.248E-01  0.248E-01  0.248E-01
  14.200  0.202E-02  0.673E-03  0.673E-03  0.673E-03
  14.300 -0.234E-01 -0.778E-02 -0.778E-02 -0.778E-02
  14.400  0.274E-01  0.914E-02  0.914E-02  0.914E-02
  14.500  0.168E+00  0.559E-01  0.559E-01  0.559E-01
  14.600  0.334E+00  0.111E+00  0.111E+00  0.111E+00
  14.700  0.408E+00  0.136E+00  0.136E+00  0.136E+00
  14.800  0.350E+00  0.117E+00  0.117E+00  0.117E+00
  14.900  0.244E+00  0.813E-01  0.813E-01  0.813E-01
  15.000  0.164E+00  0.546E-01  0.546E-01  0.546E-01
  15.100  0.100E+00  0.335E-01  0.335E-01  0.335E-01
  15.200  0.374E-01  0.125E-01  0.125E-01  0.125E-01
  15.300 -0.436E-02 -0.145E-02 -0.145E-02 -0.145E-02
  15.400 -0.945E-03 -0.315E-03 -0.315E-03 -0.315E-03
  15.500  0.513E-01  0.171E-01  0.171E-01  0.171E-01
  15.600  0.147E+00  0.491E-01  0.491E-01  0.491E-01
  15.700  0.277E+00  0.924E-01  0.924E-01  0.924E-01
  15.800  0.395E+00  0.132E+00  0.132E+00  0.132E+00
  15.900  0.414E+00  0.138E+00  0.138E+00  0.138E+00
  16.000  0.298E+00  0.994E-01  0.994E-01  0.994E-01
  16.100  0.128E+00  0.426E-01  0.426E-01  0.426E-01
  16.200  0.112E-01  0.375E-02  0.375E-02  0.375E-02
  16.300 -0.273E-01 -0.911E-02 -0.911E-02 -0.911E-02
  16.400 -0.266E-01 -0.887E-02 -0.887E-02 -0.887E-02
  16.500 -0.110E-01 -0.367E-02 -0.367E-02 -0.367E-02
  16.600  0.314E-01  0.105E-01  0.105E-01  0.105E-01
  16.700  0.111E+00  0.371E-01  0.371E-01  0.371E-01
  16.800  0.195E+00  0.651E-01  0.651E-01  0.651E-01
  16.900  0.222E+00  0.740E-01  0.740E-01  0.740E-01
  17.000  0.169E+00  0.565E-01  0.565E-01  0.565E-01
  17.100  0.815E-01  0.272E-01  0.272E-01  0.272E-01
  17.200  0.146E-01  0.487E-02  0.487E-02  0.487E-02
  17.300 -0.139E-01 -0.463E-02 -0.463E-02 -0.463E-02
  17.400 -0.158E-01 -0.527E-02 -0.527E-02 -0.527E-02
  17.500  0.393E-02  0.131E-02  0.131E-02  0.131E-02
  17.600  0.503E-01  0.168E-01  0.168E-01  0.168E-01
  17.700  0.106E+00  0.355E-01  0.355E-01  0.355E-01
  17.800  0.129E+00  0.430E-01  0.430E-01  0.430E-01
  17.900  0.104E+00  0.346E-01  0.346E-01  0.346E-01
  18.000  0.817E-01  0.272E-01  0.272E-01  0.272E-01
  18.100  0.114E+00  0.381E-01  0.381E-01  0.381E-01
  18.200  0.173E+00  0.576E-01  0.576E-01  0.576E-01
  18.300  0.178E+00  0.593E-01  0.593E-01  0.593E-01
  18.400  0.112E+00  0.372E-01  0.372E-01  0.372E-01
  18.500  0.511E-01  0.170E-01  0.170E-01  0.170E-01
  18.600  0.857E-01  0.286E-01  0.286E-01  0.286E-01
  18.700  0.229E+00  0.764E-01  0.764E-01  0.764E-01
  18.800  0.399E+00  0.133E+00  0.133E+00  0.133E+00
  18.900  0.471E+00  0.157E+00  0.157E+00  0.157E+00
  19.000  0.403E+00  0.134E+00  0.134E+00  0.134E+00
  19.100  0.280E+00  0.934E-01  0.934E-01  0.934E-01
  19.200  0.193E+00  0.643E-01  0.643E-01  0.643E-01
  19.300  0.141E+00  0.468E-01  0.468E-01  0.468E-01
  19.400  0.103E+00  0.343E-01  0.343E-01  0.343E-01
  19.500  0.114E+00  0.380E-01  0.380E-01  0.380E-01
  19.600  0.190E+00  0.633E-01  0.633E-01  0.633E-01
  19.700  0.260E+00  0.865E-01  0.865E-01  0.865E-01
  19.800  0.241E+00  0.802E-01  0.802E-01  0.802E-01
  19.900  0.143E+00  0.478E-01  0.478E-01  0.478E-01
  20.000  0.420E-01  0.140E-01  0.140E-01  0.140E-01
  20.100 -0.124E-01 -0.414E-02 -0.414E-02 -0.414E-02
  20.200 -0.188E-02 -0.627E-03 -0.627E-03 -0.627E-03
  20.300  0.879E-01  0.293E-01  0.293E-01  0.293E-01
  20.400  0.235E+00  0.783E-01  0.783E-01  0.783E-01
  20.500  0.344E+00  0.115E+00  0.115E+00  0.115E+00
  20.600  0.328E+00  0.109E+00  0.109E+00  0.109E+00
  20.700  0.213E+00  0.712E-01  0.712E-01  0.712E-01
  20.800  0.101E+00  0.338E-01  0.338E-01  0.338E-01
  20.900  0.425E-01  0.142E-01  0.142E-01  0.142E-01
  21.000  0.267E-01  0.889E-02  0.889E-02  0.889E-02
  21.100  0.405E-01  0.135E-01  0.135E-01  0.135E-01
  21.200  0.760E-01  0.253E-01  0.253E-01  0.253E-01
  21.300  0.120E+00  0.399E-01  0.399E-01  0.399E-01
  21.400  0.165E+00  0.550E-01  0.550E-01  0.550E-01
  21.500  0.203E+00  0.677E-01  0.677E-01  0.677E-01
  21.600  0.207E+00  0.690E-01  0.690E-01  0.690E-01
  21.700  0.154E+00  0.512E-01  0.512E-01  0.512E-01
  21.800  0.645E-01  0.215E-01  0.215E-01  0.215E-01
  21.900  0.308E-02  0.103E-02  0.103E-02  0.103E-02
  22.000  0.355E-01  0.118E-01  0.118E-01  0.118E-01
  22.100  0.181E+00  0.602E-01  0.602E-01  0.602E-01
  22.200  0.361E+00  0.120E+00  0.120E+00  0.120E+00
  22.300  0.443E+00  0.148E+00  0.148E+00  0.148E+00
  22.400  0.388E+00  0.129E+00  0.129E+00  0.129E+00
  22.500  0.293E+00  0.976E-01  0.976E-01  0.976E-01
  22.600  0.258E+00  0.860E-01  0.860E-01  0.860E-01
  22.700  0.268E+00  0.893E-01  0.893E-01  0.893E-01
  22.800  0.239E+00  0.796E-01  0.796E-01  0.796E-01
  22.900  0.137E+00  0.457E-01  0.457E-01  0.457E-01
  23.000  0.208E-01  0.694E-02  0.694E-02  0.694E-02
  23.100 -0.110E-01 -0.366E-02 -0.366E-02 -0.366E-02
  23.200  0.121E+00  0.405E-01  0.405E-01  0.405E-01
  23.300  0.402E+00  0.134E+00  0.134E+00  0.134E+00
  23.400  0.655E+00  0.218E+00  0.218E+00  0.218E+00
  23.500  0.666E+00  0.222E+00  0.222E+00  0.222E+00
  23.600  0.427E+00  0.142E+00  0.142E+00  0.142E+00
  23.700  0.143E+00  0.478E-01  0.478E-01  0.478E-01
  23.800 -0.765E-02 -0.255E-02 -0.255E-02 -0.255E-02
  23.900 -0.710E-02 -0.237E-02 -0.237E-02 -0.237E-02
  24.000  0.793E-01  0.264E-01  0.264E-01  0.264E-01
  24.100  0.183E+00  0.610E-01  0.610E-01  0.610E-01
  24.200  0.279E+00  0.929E-01  0.929E-01  0.929E-01
  24.300  0.411E+00  0.137E+00  0.137E+00  0.137E+00
  24.400  0.599E+00  0.200E+00  0.200E+00  0.200E+00
  24.500  0.712E+00  0.237E+00  0.237E+00  0.237E+00
  24.600  0.600E+00  0.200E+00  0.200E+00  0.200E+00
  24.700  0.326E+00  0.109E+00  0.109E+00  0.109E+00
  24.800  0.104E+00  0.348E-01  0.348E-01  0.348E-01
  24.900  0.535E-01  0.178E-01  0.178E-01  0.178E-01
  25.000  0.108E+00  0.359E-01  0.359E-01  0.359E-01
  25.100  0.143E+00  0.476E-01  0.476E-01  0.476E-01
